RBW [kHz]	B3dB [kHz]
500,00	615,38
300,00	410,26
200,00	224,36
100,00	102,56
50,00	51,28
30,00	32,05
20,00	22,44
10,00	12,82
6,25	6,41
5,00	6,41
